Sample File	C:\Documents and Settings\bostonair\Desktop\OlinCollege\No Filter\Baseline2.S80
Classifier Model	3080
DMA Model	3085
DMA Inner Radius(cm)	0.00937
DMA Outer Radius(cm)	0.01905
DMA Characteristic Length(cm)	0.04987
CPC Model	3775 Low Flow
Gas Viscosity (kg/(m*s))	1.822e-005
Mean Free Path (m)	6.642e-008
Channels/Decade	64
Multiple Charge Correction	TRUE
Nanoparticle Aggregate Mobility Analysis	FALSE
Diffusion Correction	TRUE
Gas Density	0.0012
Units	dw/dlogDp
Weight	Number
Sample #	51
Date	03/10/17
Start Time	18:18:34
Diameter Midpoint
7.10	0
7.37	5091.37
7.64	4348.48
7.91	9353.89
8.20	11209.6
8.51	19927.7
8.82	14884.7
9.14	5235.51
9.47	11064.7
9.82	13265.7
 10.2	12699.9
 10.6	19556.6
 10.9	15765.7
 11.3	15371.9
 11.8	11247.5
 12.2	11964.8
 12.6	6825.37
 13.1	13965.6
 13.6	8107.26
 14.1	10368.9
 14.6	11526.6
 15.1	9244.94
 15.7	11831.3
 16.3	8834.69
 16.8	11672.5
 17.5	10717.4
 18.1	11145.6
 18.8	8357.85
 19.5	8283.42
 20.2	9730.69
 20.9	7217.99
 21.7	6097.79
 22.5	4340.68
 23.3	5314.91
 24.1	3862.63
 25.0	2837.63
 25.9	2730.96
 26.9	2574.62
 27.9	2416.57
 28.9	1758.06
 30.0	1783.76
 31.1	2519.73
 32.2	1776.35
 33.4	1660.8
 34.6	2141.61
 35.9	2038.07
 37.2	1971.42
 38.5	1863.78
 40.0	2177.54
 41.4	1898.01
 42.9	2122.7
 44.5	1901.49
 46.1	2164.36
 47.8	1487.27
 49.6	1289.2
 51.4	1264.36
 53.3	1416.87
 55.2	1633.22
 57.3	1618.97
 59.4	1393.68
 61.5	1010.38
 63.8	1410.34
 66.1	790.651
 68.5	1024.38
 71.0	879.88
 73.7	852.401
 76.4	1020.65
 79.1	857.101
 82.0	844.513
 85.1	885.681
 88.2	431.11
 91.4	677.762
 94.7	949.931
 98.2	420.626
101.8	625.407
105.5	814.038
109.4	909.121
113.4	905.639
117.6	543.445
121.9	778.585
126.3	646.495
131.0	640.557
135.8	625.839
140.7	969.75
145.9	448.476
151.2	714.162
156.8	742.768
Scan Up Time(s)	120
Retrace Time(s)	15
Down Scan First	FALSE
Scans Per Sample	1
Impactor Type(cm)	0.071
Sheath Flow(lpm)	3
Aerosol Flow(lpm)	0.3
CPC Inlet Flow(lpm)	0.3
CPC Sample Flow(lpm)	0.3
Low Voltage	25.3075
High Voltage	9448.65
Lower Size(nm)	6.97831
Upper Size(nm)	159.634
Density(g/cc)	1.2
Title	
Status Flag	Normal Scan
td(s)	2.93
tf(s)	0.783657
D50(nm)	1284.41
Median(nm)	13.7814
Mean(nm)	20.5556
Geo. Mean(nm)	15.8833
Mode(nm)	8.50526
Geo. Std. Dev.	1.85713
Total Concentration(#/cm³)	6535.85
Comment	
Sample File	D:\OlinCollege\All_data\OlinCollege\No Filter\Baseline2.S80
Classifier Model	3080
DMA Model	3085
DMA Inner Radius(cm)	0.00937
DMA Outer Radius(cm)	0.01905
DMA Characteristic Length(cm)	0.04987
CPC Model	3775 Low Flow
Gas Viscosity (kg/(m*s))	1.822e-005
Mean Free Path (m)	6.642e-008
Channels/Decade	64
Multiple Charge Correction	TRUE
Nanoparticle Aggregate Mobility Analysis	FALSE
Diffusion Correction	TRUE
Gas Density	0.0012
Units	dw/dlogDp
Weight	Number
Sample #	1	2	3	4	5	6	7	8	9	10	11	12	13	14	15	16	17	18	19	20	21	22	23	24	25	26	27	28	29	30	31	32	33	34	35	36	37	38	39	40	41	42	43	44	45	46	47	48	49	50	51
Date	03/10/17	03/10/17	03/10/17	03/10/17	03/10/17	03/10/17	03/10/17	03/10/17	03/10/17	03/10/17	03/10/17	03/10/17	03/10/17	03/10/17	03/10/17	03/10/17	03/10/17	03/10/17	03/10/17	03/10/17	03/10/17	03/10/17	03/10/17	03/10/17	03/10/17	03/10/17	03/10/17	03/10/17	03/10/17	03/10/17	03/10/17	03/10/17	03/10/17	03/10/17	03/10/17	03/10/17	03/10/17	03/10/17	03/10/17	03/10/17	03/10/17	03/10/17	03/10/17	03/10/17	03/10/17	03/10/17	03/10/17	03/10/17	03/10/17	03/10/17	03/10/17
Start Time	16:26:00	16:28:18	16:30:33	16:32:48	16:35:03	16:37:18	16:39:33	16:41:48	16:44:03	16:46:18	16:48:33	16:50:48	16:53:03	16:55:18	16:57:33	16:59:48	17:02:03	17:04:18	17:06:33	17:08:48	17:11:03	17:13:18	17:15:33	17:17:48	17:20:03	17:22:18	17:24:33	17:26:48	17:29:03	17:31:18	17:33:33	17:35:48	17:38:03	17:40:18	17:42:33	17:44:48	17:47:03	17:49:18	17:51:33	17:53:48	17:56:03	17:58:18	18:00:33	18:02:48	18:05:03	18:07:18	18:09:34	18:11:48	18:14:04	18:16:19	18:18:34
Diameter Midpoint
7.10	3000.4	0	60148.4	442978	697216	465013	406412	256111	284943	358922	378612	333746	335434	355781	351749	266285	189446	194791	102951	115468	30144.4	49975.1	38489.4	15002	27659.8	20486.9	35489	31316.5	24003.2	10829.5	6657.02	10829.5	1828.31	3000.4	3000.4	4828.71	10829.5	12001.6	3000.4	7829.12	3000.4	1828.31	9001.21	1828.31	3000.4	0	3000.4	0	12001.6	3000.4	0
7.37	5091.37	0	312044	1.9832e+006	2.53458e+006	1.68253e+006	1.15391e+006	875833	893293	1.01875e+006	1.11345e+006	1.12236e+006	1.12562e+006	1.21174e+006	1.26043e+006	951048	877222	749501	501140	379105	201984	186710	158866	205642	175890	108549	85240.1	113840	84603.7	96178.3	80905.2	60538.7	65034	30746.9	43276.7	52106.9	21558.6	28002.5	15472.8	28997	17819.8	13722.9	5091.37	28997	15274.1	12728.4	15274.1	7637.06	12728.4	2545.69	5091.37
7.64	0	0	242711	2.14723e+006	2.47719e+006	1.90707e+006	1.31417e+006	861270	893235	1.02799e+006	1.0495e+006	1.08882e+006	1.05853e+006	1.12826e+006	1.1465e+006	1.00391e+006	932309	866267	531436	394575	198741	202943	182497	164909	147539	105079	92003.5	75758.9	77948.3	58040.7	61063.5	64378.6	59729.3	47663.5	32613.6	51017.3	34618.1	43484.8	22752.2	22921.9	26090.9	23106.7	23106.7	15219.7	23916.6	14224.9	19568.1	6522.71	13230.2	7702.23	4348.48
7.91	4.71928	1870.78	209083	1.93618e+006	2.41864e+006	1.89727e+006	1.24775e+006	814838	827615	947499	936906	1.06111e+006	949015	1.00194e+006	1.04847e+006	997173	799820	758228	468551	393154	241752	201465	192400	157875	123172	135098	131680	89825.7	95260.1	82164.7	46624.6	65482	51207.9	44908.1	56128.1	36410.1	46774.2	22454.1	34544.1	19573.1	24324.8	34380.3	15667.8	14966.2	28066.4	10219.2	11224.7	14966.2	14811.9	17692.9	9353.89
8.20	4858.44	2363.11	199396	1.93182e+006	2.07889e+006	1.84536e+006	1.09249e+006	749001	799308	887186	860302	899583	888105	907665	1.01721e+006	879050	808472	689343	475215	336590	192571	208222	149290	140576	137074	98714.7	116267	80745	75762.6	80761.4	70153.7	47606.3	48352.7	59690.4	45243.2	47738.6	32412.8	43486.1	37267.1	36256.3	26671.7	21062.8	20052	12966.8	27550.3	12958.6	16208.4	18571.5	17825.2	16950.7	11209.6
8.51	2829.81	5011.67	109534	2.03046e+006	2.00784e+006	1.64601e+006	1.03224e+006	724389	778224	744092	779141	871004	804881	853840	895774	874406	723062	673215	471322	329951	172081	204970	157651	164608	138609	106617	117148	90145.3	91937.9	97737.1	102490	50019.7	56446.2	56704.9	34974.3	49771.3	42447.2	33419.8	48875.1	33299.4	34336.7	21223.6	26224.9	30869.3	14149.1	12734.2	21223.6	5011.67	20964.9	9127.06	19927.7
8.82	2480.79	439.435	177206	2.09325e+006	1.78643e+006	1.57817e+006	940755	668578	748424	769915	740280	781071	816844	818892	739620	771353	663751	616765	421556	319298	190411	161761	167531	140653	118922	142829	117837	109438	71482.1	94461.3	59595.5	58277.2	76443.6	56087	55548.2	50069.3	47212.9	39210.4	32455.6	42364.7	19385.5	32328.2	30322.3	22553.9	21526.1	28968.5	21965.6	14083.8	19272.1	11276.9	14884.7
9.14	3051.67	705.085	269276	1.81341e+006	1.6234e+006	1.40047e+006	813610	660364	636123	716723	654360	663642	689376	724671	744807	665967	687285	559881	441826	255724	165315	167452	144507	143776	123771	133345	102439	89730	74059.3	73285.6	61816.8	69304.8	60508	63613.8	42997.3	45636.5	46435.8	47975.9	26944	36580	45893.4	23729.6	25790.7	25533.8	28422.7	36066.2	14289.1	12492.1	15992	17470.7	5235.51
9.47	2133.79	2902.81	170964	1.26362e+006	1.55063e+006	1.2912e+006	752277	649640	624166	615612	589314	655010	606282	680192	654855	590156	598485	527312	404144	225013	147986	162646	140198	124217	120941	128605	89407.2	82664.1	80427.2	57060	61921.9	50653.9	59169.9	56116.3	41205	45375.7	37611	39149.1	33716.7	22599.5	37064.5	24611.1	21535	21137.9	22327.9	22327.9	16125.1	20740.7	20542.1	10643.7	11064.7
9.82	3439.03	1719.52	95750.4	975891	1.34591e+006	1.14256e+006	663351	618988	598725	640554	562883	582755	578956	602369	626211	573004	574607	501190	364765	228497	146924	141890	138485	133300	111627	97589.6	105023	87039	94553.1	62889.3	60972.1	60295.4	56501.7	61576.5	36917.6	46656.4	34543.3	34562	35326.6	34166.7	24907	31868.8	26143.3	23856.9	21098.7	20805.8	20238.9	22430.2	16137.8	12896.4	13265.7
 10.2	769.375	769.375	54962.1	907432	1.2435e+006	1.06899e+006	647918	539357	519074	571742	525908	524634	556195	532678	568449	524001	508776	451507	329326	232931	144368	137713	115279	107976	104753	103386	95147.7	75886.1	73006.7	68437.7	51511.4	52257.8	48171.9	51803.9	48673	41066.2	42016.9	31934.3	28413.4	26612.6	34370.3	31443.7	24321.2	28739.4	17182	25651.4	10963.1	24374.7	8527.07	13912.7	12699.9
 10.6	2070.39	1380.26	39398.3	901426	1.20051e+006	972283	569798	484616	502216	561569	476963	503944	481278	549493	497159	475070	460290	453844	302415	199744	124347	125784	116470	94266.5	104733	91562	75172.3	73332.4	81324.7	51936.3	72640.2	69650.3	55041.4	45322.2	51015.7	47392.6	42963.6	33361.2	30195.7	32956.2	30137.3	29562.9	26400.5	27031.2	18751.7	14492.7	18462.5	16219.6	12366	16161.2	19556.6
 10.9	1240.98	2481.97	40258	791598	1.06553e+006	890823	482744	475069	440609	505689	437880	448346	460236	488975	500721	452417	455484	369731	283937	190690	119257	117783	121612	84877	93966.2	86374.2	83254.2	75677.8	61097.6	57740	58980.9	53396.5	55677.8	53816.3	38907.9	44509	36078.2	35401.3	30074.9	27190.7	22227.7	25895.1	24343.4	20731.5	26825.4	25842.4	23359.5	16387.1	19691.1	10858.1	15765.7
 11.3	2243.68	3365.52	52249.9	720950	972836	779601	438033	419277	417285	403785	439856	417826	447990	404625	435524	448734	414804	357502	270896	177966	122258	106279	102487	98650.2	96248.3	89191.6	72632.1	62680.4	63624.5	70483.9	53656.3	52001.3	52024.9	44555.2	41896.5	38973.7	36957.1	30125.4	33512.5	31482.5	26434.2	24034.3	32625.9	17971	21079.7	19446.3	20362.7	17232.4	13226.8	16622.2	15371.9
 11.8	3415.44	3560.51	38313.3	734450	816014	759894	364877	376375	394837	437769	360627	399334	406349	374985	403167	385631	368287	324150	265881	186736	93800.4	100162	88905.5	98233.2	78571.5	80401.8	79193	63399.9	56366.6	64997.4	47413.4	59087.1	56431.2	50198.5	41906	38039.3	43399.8	33653	28301.6	27130.2	26184.5	26370.8	28244.3	26693.2	22147.6	21420.4	17827.7	16462.9	15171.6	13266	11247.5
 12.2	4291.5	4159.68	24658.6	584363	698863	662132	309041	309855	358743	362933	335488	357664	336506	377393	362725	358472	355475	308761	238623	156881	111948	97262.5	97374.8	97192.5	90197.9	80824	66230.9	58227.3	63889.1	58940.1	49230.9	51590.7	44975.3	38865.9	41489.3	43906.1	39497.4	34149.7	37235.3	29544.1	28603.5	18946.4	23519.4	22643.9	19623.4	16124.4	15545.1	17807.2	13994.1	16770.5	11964.8
 12.6	3798.39	2110.22	23536	461655	597974	517177	295655	284840	309348	330323	336276	345039	320593	338570	334875	347128	311109	281674	202128	118846	103009	95670.9	87213.5	90221.7	62141.5	71820.8	69316.3	59949.4	52317.3	53124	48922.5	45304.4	45878.6	34600.7	45304.4	38171.8	38873	33611.3	25979.2	31095.9	24119.9	24928.7	22853.8	21327.4	16532.4	16738.8	15967.4	17493.7	12689.4	13262	6825.37
 13.1	2320.81	2320.81	16327.1	290178	487916	422228	276495	231253	255992	298842	261215	281313	285601	299737	319542	299967	304150	272060	200653	130559	85438.9	89838.5	76236.5	66537.4	74695.6	76571	60049.4	60247.1	63176.1	44734.3	49864.2	52261.1	40692.4	39656.7	44190.6	31880	36603	28943.1	26101.7	30442.7	31327.8	21367.1	20602	22733.6	21105.6	18752.5	12970.5	14989.1	12575.3	10614.4	13965.6
 13.6	1772.42	3000.69	12776.9	248717	405175	301872	218247	216444	231562	238499	241121	234902	275332	291863	296284	263632	258785	233028	183139	106520	73011.2	83191.2	71790.5	73499.4	67804.6	76661.2	61211.1	57064.6	53201.8	53763.1	39622.1	44458.4	46924.5	35697.6	34163.1	32668.3	32271.8	38501.1	28443.1	33085.9	27791.7	21422.4	21694.5	21529.7	19996.9	22062.4	16306.2	11060	12110	10492.8	8107.26
 14.1	3442.55	2124.01	10384.8	196382	294629	261546	167260	160539	180107	203044	205284	228008	240605	242744	237791	241718	267905	212422	164411	89660.9	74467.5	73423.2	66425.6	68749.8	58532	53539.9	63041	52674.7	53615.5	46482.6	50880.1	40106.3	41170.7	39380.7	39233.9	36574	35768.5	27942.7	24905.9	24518.6	22916.3	19700.4	19716.3	20577.2	16544.3	18478.5	15793.3	14708.3	13657.7	13234.4	10368.9
 14.6	3673.29	2091.66	8012.94	134925	215621	193602	125622	124346	143027	158708	172616	188990	191429	208586	220257	211582	211713	190352	140561	85322.2	73229.1	73323.3	59773.8	62666	59293.2	55321.1	53775.5	51280.3	53160.7	42688.5	40119.6	35587.6	39080.7	28519.3	34005.9	29595.9	29786.6	21617.3	24600.4	23059.8	26978.7	14657.1	17964.5	15570.7	14761.9	16499.9	12287.2	9788.6	8559	10070.2	11526.6
 15.1	2043.27	1933.05	6982.2	94199.2	168496	145435	93050.1	96045.8	109882	140409	129598	154648	163026	175503	188289	184530	187991	161972	132966	80177.2	63533.8	54847.1	60566.8	52625.7	54388.2	56091.8	48881	44961.4	43612.4	38963.6	35556.4	33767.5	32527.8	34459.9	31642.7	22200	29156.4	21063.7	20765.7	20085.2	20922.7	21901.2	17040.7	15653.1	16117.9	18129.4	14436.1	13779.4	9198.25	13996.2	9244.94
 15.7	2232.25	2718.95	5207.31	73378.7	112731	104404	75228.1	77091	88479	94002.8	107246	122817	143121	146380	149702	162218	169467	162314	110340	71776.9	49831.4	49511	56720.9	49807.9	50726.5	44149.7	41071.7	37401.9	40356.2	40231.5	32928.9	30496.3	31059.6	34000.6	29245.1	29574.9	26137.7	23705.1	21473.8	19475	18865.4	16082.2	17781.4	16129.4	12475.8	14964.2	10997.8	14305.5	12160.2	13330.1	11831.3
 16.3	4014.87	1280.72	4581.93	58678.2	83577.5	80310.3	49063.6	57080.2	72347.3	87722.4	87706.7	91581.2	105824	119622	131947	132360	146704	128780	86896.4	67555.6	45694.6	53035.7	38843.4	40068.8	44246.9	36713.9	39237.7	37148.9	33511.8	33744.9	28025.8	31263.8	29459.9	27626.7	26898.4	25197.3	23056.3	22352.5	21869.9	20728	20128	18484.2	18280.3	18531.7	13328.4	15187.7	11391.4	11179.6	11213.6	12417.6	8834.69
 16.8	2018.79	2987.76	4287.19	32444.5	55417.3	57366.8	32762.1	41780.7	46399	51074.7	57351.1	74807.7	81487.4	102124	103282	109674	122385	100314	76897.9	55928.8	35213.3	44546	33816	31657.9	36166.4	37509	33843.7	35281.2	33013.3	36042.3	29707.5	27230.3	20827.6	28559.2	19389.5	22764.4	20329.5	20025.6	20662.3	16664.9	16720.9	14963.5	13843.5	16885.6	12198.8	13124.8	11327.3	10800.9	11838.9	11271.8	11672.5
 17.5	2797.69	2993.05	5109.19	22133.2	40816.1	40546.2	19511.7	27519.7	30762.3	44180.7	49549.3	60552.2	60759.8	70530.3	77845.4	92138.4	105317	87029.8	71381.2	48074.6	33899.5	29510.7	31845.6	31816	32177.1	29997.5	27317.5	32248	24838.4	30143.5	20210.6	23931.3	23586.9	23608.4	20386.8	22584.3	19439	15959.8	20088.5	15299.2	17217.5	13523.8	10954.1	11334.3	15041.6	13026.5	8392.45	11500.1	11921	11469.9	10717.4
 18.1	2979.05	2831.97	4983.64	15951.4	29060.9	24675.2	13693.2	15378	21640.9	28629.5	34364.8	42104.3	45246.6	55344.5	58649.2	69773.5	82085.4	72200.1	63125.3	37237.4	22670.6	28197.4	26340.6	26127.7	26695.5	28314.4	23184	22640.3	22305.8	22189.1	23573.8	18357.4	18600.4	18610.6	19878.9	17849.1	15936.4	17631.4	15824.4	11252.1	13292.2	15484.5	10099.7	8906.8	13271.6	11622	11545.9	9510.97	9815.47	9328.35	11145.6
 18.8	1850.06	2224.34	3099.01	8611.86	18702.5	14131.2	11147.1	11681.3	17791.7	18218.7	24855.6	29384.2	29713.5	43221.1	42775.7	53193.8	57161.7	52366	42367.2	25173	21076	21253.2	23001.4	18896.2	22086.4	24441	19289.4	20994.9	18355.5	20841.6	17309	16769.5	15714.2	15871.7	16394	15424	15069.3	13796.1	13567.4	14477.1	15559.7	8813.29	11770.1	10072.2	13669.3	11219.4	9904.65	8684.14	7692.24	7867.46	8357.85
 19.5	2565.42	2267.76	3989.45	7014.63	11108.6	11000.9	6122.52	8608.92	8182.98	14011.9	14983.9	15495.3	18028.8	23550.8	34717.9	36350.1	43557	43782.9	36511.3	15758.2	13570.4	15585.6	17490.9	16936.7	17134.7	17673.5	18177.6	17973.5	10966.2	13705	14433.8	13984.9	13401	12116.8	13137.1	11405.4	9534.86	13558.1	11491.7	14495.4	11319.1	12145.5	13707.8	9372.75	8331.81	9562.7	10025.7	8798.86	10108.8	8210.81	8283.42
 20.2	2483.03	2005.89	2718.1	3216.54	7625.32	8966.21	5925.18	5478.79	7477.89	8944.91	9920.49	10706.1	14208	19302.1	19394.6	22188.9	30388.7	32318.4	22255.5	13514.7	13227.6	9934.79	14563.6	15608.4	13951.4	14055.7	13220.1	11268.9	10411.9	11867.3	13471.6	11952.5	11591.8	9453.03	7698.67	11176.4	11406.9	9993.84	8161.3	7848.04	10034.3	8909.32	7874.18	9744.99	9227.41	10495	10511.4	6898.6	6915.06	8247	9730.69
 20.9	2951.98	2029.73	2678.53	4268.35	5273.41	3557.3	4025.55	3617.99	4802.45	7449.18	7835.93	7265.51	6718.21	10375.4	12301	15884.3	26297.2	27991.9	19893.8	11188.1	9515.76	10206	10920.1	9961.99	9107.4	10583.5	10223	9971.92	7758.74	7459.77	8167.13	8146.88	9701.27	7253.99	10118.3	7264.88	9991.61	6644.42	6809.46	7677.84	7735.1	9109.33	8123.14	7442.19	9420.82	6302.34	6724.95	9021.27	7365.46	6903.66	7217.99
 21.7	2644.82	2952.04	1563.88	3384.57	4632.2	3781.25	2167.29	3303.05	4226.23	3411.09	3576.36	6245.83	5998.01	5690.03	9395.72	10890.7	17923.7	18018	13165.3	9595.75	7511.56	9231.75	9048.06	8072.43	10985.3	7841.92	9861.34	7819.88	7341.82	6633.61	8257.49	6524.2	7539.45	6194.39	6818.93	7088.54	8540.58	8408.76	8245.09	6417.46	6754.47	6426.72	5930.96	5049.31	5238.24	7976.56	8228.92	4893.7	5324.09	7333.02	6097.79
 22.5	2981.52	2573.43	3062.57	2401.45	4128.55	3554.93	4017.93	3371.6	2317.03	1700.89	2709.81	3477.93	3429.02	4331.69	5581.25	5911.28	14876.3	14652.5	9816.38	8419.87	4471.92	5998.56	5659.72	7581.58	7311.09	6324.37	4796.46	6002.53	5567.47	5650.77	6583.07	6534.33	5394	6414.5	5795.29	5338.67	5049.35	7011.83	8338.7	6027.02	5864.87	4744.87	3861.88	7020.11	4998.27	3708.9	4930.56	5560.6	5566.29	4088.95	4340.68
 23.3	1767.33	1578.88	2685.56	3563.02	3234.65	2236.21	2617.53	1571.96	2012.57	2854.88	2905.75	2427.98	2864.88	3911.97	3137.44	2811.34	12310.7	11206.5	9714.21	6367.49	5896.89	5274.37	4730.26	5272.32	5787.45	5144.98	4419.99	4403.45	4095.08	5448.72	4303.9	4315.71	4292.88	4254.67	3598.51	5110.47	3824.38	5764.58	4498.51	5679.69	3850.08	4749.01	3241.44	4567.03	3611.15	4857.57	4514.19	3424.3	4038.88	3231.25	5314.91
 24.1	2448.11	2658.43	2839.27	2550.42	3039.81	3124.39	2212.81	3511.08	2674.72	2580.59	2587.73	2018.86	2643.61	2942.73	2839.2	2895.71	10822.6	9501	7427.05	7908.31	6668.04	5415.28	3771.63	4892.19	4840.09	3860.1	4787.89	4000.85	4619.14	5336.19	3269	3216.94	4248.84	4060.77	4124.56	3894.89	3682.19	3273.91	3830.03	4706	3571.85	2932.42	3914.72	3144.81	4130.32	4553.66	2882.56	4264.67	3907.74	3572.73	3862.63
 25.0	1824.73	2777.12	2447.68	2989.35	2641.33	2523.9	2750.39	1975.52	2289.59	2136.21	1956.85	1823.2	1829.9	2390.93	2472.81	2140.44	7827.18	9319.25	8548.83	3932.91	5429.74	4700.42	3591.52	5186.86	3069.6	3862.52	3673.73	2700.72	2867.15	3053.13	3466.07	4347.09	3378.49	2872.74	3795.99	2814.79	2069.62	3263.52	3267.83	3126.52	3306.97	3868.92	3936.7	3205.18	2487.46	2195.07	3326.31	3385.23	4490.51	3235.44	2837.63
 25.9	2368.73	2510.34	2734.16	1414.06	2517.01	3022.59	2802.78	2182.04	2278.07	2729.96	2282.2	2815.89	1662.6	2516.72	2303.36	2493.85	7065.16	9680.39	9435.7	4611.66	3967.48	4080.78	4282.02	4830.17	4283.75	4891.65	4518.04	3533.33	3483.02	3167.38	3464.5	3669.48	3158.89	2168.94	3885.03	3140.97	2413.32	3023.01	3880.29	2938.18	2101	3692.34	3068.02	2626.51	2397.15	3270.56	3280.22	1774.3	2668.63	3266.17	2730.96
 26.9	3152.63	2424.54	2349.06	1952.46	1632.7	2760.91	1854.65	2654.5	1867.23	1968.61	1599.81	1475.21	2393.1	2578.22	1672.92	866.551	7745.41	7642.02	8752.16	5574.63	4568.57	4266.65	3278.56	3637.56	3353.34	3054.02	2647.78	2842.8	3695.59	2888.85	3387.56	2847.38	3168.36	2001.41	2462.04	2544.74	2216.65	1508.9	2780.59	1664.35	1995.26	2968.85	2506.29	2701.84	2254.57	2339.32	1995.03	1994.78	1972.71	1900.22	2574.62
 27.9	2872.35	3011.66	2687.94	2678.38	2430.36	1977.15	2159.42	1981.65	2830.65	1507.65	1379.98	1751.97	2179.75	3290.7	2339.39	2678.15	7732.99	6929.82	7298.39	4849.97	4186.39	4566.17	3820	4478.93	4235.37	3357.92	3148.54	2966.81	3051.58	2588.51	3346.51	2551.35	1829.98	3611.68	3246.53	2243.62	2614.43	2458.75	3054.91	2510.71	2088.58	2490.87	2074.49	1711.51	1593.07	1949.89	1968.26	1260.91	1871.2	2568.01	2416.57
 28.9	2830.44	2408.38	2721.44	2619.15	2883.49	2844.67	2283.88	1815.61	2458.45	1949.13	2891.11	2506.68	1703.09	1737.57	1831.67	1898.16	7525.3	7841.86	6410.65	4948.84	4141.8	4306.88	3548.24	3370.59	3355.83	3220.42	2674.28	3028.5	2832.8	2022.31	2243.5	3729.03	3248.79	2873.52	2324.73	2526.03	2128.33	1848.5	2132.69	2416.84	1499.66	1818.88	3196.94	2130.39	1338.87	1999.55	2255.83	2370.43	3210.76	2526.51	1758.06
